% tag_file.m
% tag flags data that should be set to NaN
% integer part of the number means number of cast and 
% decimal part is the depth in meters, e.g.
% 138.136 138.137 means cast 136 depth range 136:137m
% should be set to NaNs; .999 means to the bottom
% t - temperature; c - conductivity; e - epsilon
    
tag.t=[188.0 188.170;
       353.0 353.003;
       354.0 354.004;
       356.0 356.010;
       357.0 357.009;
       361.0 361.010;
       364.0 364.011;
       542.135 542.999;
       543.135 543.999;
       544.135 544.999;
       545.135 545.999;
       551.131 551.999;
       1566.0 1566.180;
       1835.088 1835.150;
       1855.007 1855.016;
       2011.0 2011.073;
 ];
    
tag.mht=[75.0 75.030;
         76.0 76.120;
         188.0 188.170;
         296.076 296.099;
         329.038 329.038;
         329.062 329.067;
         340.0 344.023;
         542.135 542.999;
         543.135 543.999;
         544.135 544.999;
         545.135 545.999;
         546.0 546.999;
         551.0 551.080;
         785.0 786.078;
         786.089 786.089;
         788.033 788.037;
         797.0 797.046;
         849.120 849.178;
         915.0 912.017;
         1164.0 1165.999;
         1166.130 1166.999;
         1167.130 1167.999;
         1275.0 1275.004;
         1566.0 1566.180;
         1835.088 1835.150;
         1855.007 1855.016;
         1859.014 1859.031;
         1860.010 1860.018;
         2011.0 2011.073;
];
    
tag.c=[188.0 188.170;
       296.076   296.099;
       399.012 399.012;
       542.135 542.999;
       543.135 543.999;
       544.0     544.092;
       544.135 544.999;
       545.0     545.016;
       545.061   545.069;
       545.135 545.999;
       546.0     546.999;
       551.131 551.999;
       616.0142 616.142;
       740.018   740.018;
       786.0     786.079;
       786.089 786.089;
       786.097 786.113;
       788.062 788.062;
       788.069 788.069;
       797.134   797.135;
       802.023 802.028;
       803.161 803.161;
       805.028 805.033;
       808.138 808.149;
       821.181 821.184;
       837.139 837.139;
       847.050 847.064;
       1094.0 1094.007;
       1566.0 1566.180;
       1624.189 1624.190;
       1743.034  1743.043;
       1805.002 1802.002;
       1835.088 1835.150;
       1840.126 1840.129;
       1855.005 1855.015;
       1855.090 1855.100;
       1855.127 1855.127;
       1856.154 1856.999;
       1858.081 1858.085;
       1858.126 1858.126;
       1858.128 1858.129;
       1859.010 1859.031;
       1859.049 1859.051;
       1860.010 1860.020;
       2011.0 2011.073;
       2184.0 2184.005;
       2191.0 2191.999;
       2198.0 2198.007;
       2375.025 2375.027;
       2460.0 2460.999;
       2463.0 2463.999;
       2498.0 2498.001;
       2531.0 2531.001;
       2553.013 2553.013;
       2556.018 2556.018;
       2582.017 2582.017;
       2630.024 2630.999;
       2641.171 2641.999;
    ];
tag.sig=[35.0 35.004;
         67.0 67.007;
         543.064 543.064;
         788.033 788.037;
         1058.0 1058.001;
         1050.011 1050.011;
         1364.0 1364.001;
         1840.140 1840.141;
         1840.165 1840.166;
        ];
tag.n2=[16.002 16.002;
        16.004 16.004;
        46.0 46.003;
        62.0 62.002;
        65.0 65.002;
        85.041 85.041;
        95.196 95.196;
        127.002 127.002;
        129.002 129.002;
        192.004 192.004;
        296.0 296.024;
        298.055 298.055;
        299.042 299.042;
        299.063 299.063;
        340.002 340.002;
        369.002 369.002;
        394.002 394.002;
        397.002 397.002;
        398.002 398.002;
        399.002 399.002;
        545.053 545.053;
        545.070 545.081;
        594.189 594.189;
        617.140 617.140;
        728.195 728.195;
        749.095 749.095;
        795.111 795.111;
        795.194 795.194;
        807.061 807.061;
        819.055 819.055;
        821.199 821.200;
        853.087 853.087;
        879.074 879.074;
        892.060 892.060;
        867.187 867.188;
        952.024 952.024;
        974.070 974.070;
        991.066 991.066;
        991.080 991.080;
        1008.067 1008.067;
        1008.072 1008.072;
        1014.080 1014.080;
        1014.085 1014.085;
        1047.071 1047.072;
        1214.075 1214.075;
        1427.085 1427.085;
        1428.092 1428.092;
        1439.185 1439.185;
        1456.097 1456.097;
        1457.081 1457.081;
        1470.185 1470.185;
        1475.017 1475.017;
        1484.077 1484.077;
        1485.170 1485.170;
        1500.193 1500.194;
        1524.043 1524.043;
        1526.194 1526.194;
        1533.025 1533.025;
        1574.056 1574.056;
        1575.034 1575.035;
        1575.058 1575.058;
        1577.061 1577.062;
        1597.086 1597.086;
        1624.053 1624.053;
        1659.030 1659.030;
        1668.076 1668.076;
        1740.045 1740.045;
        1752.036 1752.036;
        1753.038 1753.038;
        1757.069 1757.069;
        1806.037 1806.037;
        1818.083 1818.083;
        1821.082 1821.082;
        1818.055 1818.070;
        1837.069 1837.069;
        1846.089 1846.089;
        1856.058 1856.069;
        1851.0 1851.003;
        1851.026 1851.026;
        1854.0 1854.003;
        1870.033 1870.033;
        1925.066 1925.066;
        1926.061 1926.063;
        1932.076 1932.077;
        1933.059 1933.059;
        1933.064 1933.066;
        1933.080 1933.080;
        1934.059 1934.060;
        1934.080 1934.081;
        1935.059 1935.059;
        2013.011 2013.011;
        2014.011 2014.012;
        2062.024 2062.024;
        2142.167 2142.999;
        2167.088 2167.088;
        2168.091 2168.091;
        2195.036 2195.036;
        2196.038 2196.038;
        2197.037 2197.037;
        2199.034 2199.034;
        2202.047 2202.047;
        2205.054 2207.055;
        2208.048 2208.048;
        2209.061 2209.062;
        2213.048 2213.048;
        2249.054 2249.054;
        2284.048 2284.048;
        2290.048 2290.048;
        2302.141 2302.141;
        2396.025 2396.025;
        2398.048 2398.049;
        2401.040 2401.040;
        2402.032 2402.032;
        2402.044 2402.044;
        2404.042 2404.042;
        2406.024 2406.024;
        2406.036 2406.036;
        2407.071 2407.071;
        2408.044 2408.044;
        2502.039 2502.039;
        2502.068 2502.070;
        2502.073 2502.073;
        2516.053 2516.054;
        2567.035 2567.035;
        2602.054 2602.054;
        2602.058 2602.059;
        2603.058 2603.058;
        2607.054 2607.075;
        2608.054 2608.054;
        2608.068 2608.068;
        2608.073 2608.073;
        2619.026 2619.027;
        2631.073 2631.073;
        2640.189 2640.999;
        2641.161 2641.999;
        2665.074 2665.074;
        2667.072 2667.072;
    ];
tag.e = [23.013 23.013;
       25.019 25.019;
       38.007 38.007;
       44.012 44.012;
       72.008 72.011;
       98.083 98.083;
       121.010 121.010;
       127.005 127.005;
       131.006 131.006;
       136.008 136.008;
       138.007 138.007;
       145.007 145.007;
       146.115 146.119;
       149.199 149.199;
       151.0 151.016;
       154.0 154.007;
       164.0 164.005;
       170.0 170.006;
       174.0 174.006;
       175.0 175.006;
       178.0 175.007;
       181.0 181.007;
       182.0 182.007;
       191.0 191.007;
       196.0 196.005
       205.158  205.158
       210.071 210.071;
       215.050 215.063;
       216.0 216.012;
       217.0 217.012;
       229.0 229.009;
       230.0 230.009;
       251.010 251.010;
       251.080 251.148;
       258.013 258.013;
       263.145 263.149;
       273.006 273.006;
       280.019 280.037;
       288.012 288.012;
       292.006 292.006;
       295.009 295.009;
       302.006 302.006;
       302.178 302.181;
       316.055 316.055;
       323.010 323.010;
       326.013 326.013;
       329.009 329.009;
       336.0 336.010;
       342.0 342.010;
       347.0 347.010;
       349.0 349.007;
       351.0 351.010;
       355.0 355.010;
       356.0 356.010;
       371.0 371.012;
       371.090 371.091;
       397.179 397.179;
       398.179 398.179;
       387.0 387.010;
       396.0 396.006;
       397.0 397.007;
       401.0 401.008;
       402.0 402.008;
       405.0 405.006;
       410.0 410.013;
       411.0 411.011;
       416.0 416.016;
       422.0 422.016;
       433.0 433.008;
       462.0 462.015;
       470.0 470.011;
       475.0 475.013;
       478.0 478.010;
       482.0 482.012;
       491.0 491.013;
       493.0 493.011;
       498.0 498.013;
       500.0 500.011;
       501.0 501.012;
       502.0 502.014;
       504.0 504.009;
       506.0 506.014;
       508.0 508.015;
       516.0 516.013;
       532.0 532.012;
       547.0 547.024;
       568.0 568.009;
       582.0 582.012;
       585.0 585.011;
       596.0 596.012;
       621.0 621.007;
       634.0 634.009;
       651.0 651.007;
       657.0 657.007;
       676.0 676.008;
       680.0 680.010;
       681.0 681.012;
       685.0 685.013;
       686.0 686.013;
       687.0 687.010;
       694.0 694.013;
       695.0 695.011;
       699.0 699.009;
       701.0 701.009;
       707.0 707.009;
       709.0 709.013;
       726.0 726.008;
       735.0 735.012;
       759.0 759.009;
       776.0 776.006;
       787.0 787.007;
       791.0 791.006;
       803.160 803.161;
       806.0 806.008;
       807.0 807.008;
       808.0 808.008;
       820.0 820.007;
       822.0 822.008;
       822.047 822.047;
       829.101 829.101;
       838.0 838.010;
       850.0 850.011;
       868.0 868.010;
       876.0 876.010;
       879.0 879.009;
       882.0 882.009;
       894.0 894.011;
       958.029 958.029;
       1000.0 1000.009;
       1005.0 1005.009;
       1012.0 1012.011;
       1024.0 1024.009;
       1024.0 1024.010;
       1051.0 1051.013;
       1053.0 1053.010;
       1054.0 1054.010;
       1058.0 1058.008;
       1060.0 1060.008;
       1061.0 1061.007;
       1066.0 1066.007;
       1075.0 1075.005;
       1096.0 1096.009;
       1099.0 1099.007;
       1100.020 1100.032;
       1254.0 1254.007;
       1256.0 1256.007;
       1273.160 1273.160;
       1281.057 1281.064;
       1362.0 1362.010;
       1376.0 1376.011;
       1384.0 1384.009;
       1396.0 1396.011;
       1413.025 1413.028; 
       1414.0 1414.013;
       1442.0 1442.010;
       1449.0 1449.009;
       1457.064 1457.089;
       1464.0 1464.009;
       1465.0 1465.009;
       1525.122 1525.122;
       1585.0 1585.006;
       1592.0 1592.006;
       1599.0 1599.015;
       1600.0 1600.007;
       1612.0 1612.010;
       1614.193 1614.194;
       1634.0 1634.009;
       1705.061 1705.087;
       1721.0 1721.006;
       1722.122 1722.122;
       1722.124 1722.125;
       1735.0 1735.012;
       1736.0 1736.009;
       1742.103 1742.109;
       1746.0 1746.012;
       1747.0 1747.012;
       1756.0 1756.007;
       1760.011 1760.015;
       1777.0 1777.009;
       1778.0 1778.005;
       1818.055 1818.091;
       1833.163 1833.164;
       1850.0 1850.010;
       1866.123 1866.123;
       1881.187 1881.187;
       1882.092 1882.092;
       1885.094 1885.101;
       1887.184 1887.184;
       1888.0 1888.014;
       1891.169 1891.170;
       1893.167 1893.169;
       1897.0 1897.012;
       1899.0 1899.012;
       1901.032 1901.032;
       1912.0 1912.013;
       1914.0 1914.007;
       1918.0 1918.009;
       1920.184 1920.185;
       1932.0 1932.007;
       1935.193 1935.193;
       1967.174 1967.181;
       1974.0 1974.006;
       1983.180 1983.181;
       1984.0 1984.012;
       1997.0 1997.011;
       1997.198 1997.199;
       2011.060 2011.078;
       2044.184 2044.184;
       2044.190 2044.190;
       2044.194 2044.195;
       2053.0 2053.006;
       2063.010 2063.020;
       2074.0 2074.010;
       2083.0 2083.005;
       2084.0 2084.005;
       2126.011 2126.011;
       2127.0 2127.006;
       2129.0 2129.007;
       2137.007 2137.008;
       2142.136 2142.136;
       2144.0 2144.006
       2145.0 2145.006;
       2220.094 2220.094;
       2239.033 2239.033;
       2254.033 2254.038;
       2270.097 2270.097;
       2293.0 2293.018;
       2302.008 2302.015;
       2314.0 2314.011;
       2344.0 2344.008;
       2354.0 2354.014;
       2382.0 2382.013;
       2392.0 2392.014;
       2420.0 2420.008;
       2444.0 2444.009;
       2450.0 2450.006;
       2457.0 2457.013;
       2458.0 2458.018;
       2464.014 2464.015;
       2467.0 2467.020;
       2479.015 2479.018;
       2491.0 2490.018;
       2497.0 2497.009;
       2511.196 2511.196;
       2518.141 2518.148;
       2536.191 2536.191;
       2537.189 2537.190;
       2546.190 2546.190;
       2561.0   2561.999;
       2576.0   2576.999;
       2601.099 2601.101;
       2605.0 2605.999;
       2620.0 2620.999; 
];

tag.chi=[53.168 53.168;
        66.026 66.026;
        68.012 68.012;
        68.073 68.073;
        72.008 72.011;
        114.150 114.150;
        118.117 118.117;
        130.100 130.100;
        146.115 146.119;
        168.064 168.065;
        173.086 173.086;
        210.071 210.071;
        215.050 215.063;
        232.041 232.041;
        233.039 233.039;
        244.179 244.179;
        248.063 248.066;
        260.133 260.133;
        277.150 277.151;
        280.019 280.037;
        302.178 302.181;
        341.0 341.008;
        371.090 371.091;
        397.179 397.179;
        398.179 398.179;
        409.111 409.111;
        428.149 428.149;
        424.008 424.008;
        515.144 515.144;
        517.107 517.107;
        523.157 523.157;
        542.160 542.161;
        566.132 566.132;
        581.084 581.084;
        620.109 620.109;
        641.165 641.165;
        735.010 735.012;
        803.151 803.152;
        829.101 829.101;
        845.106 845.999;
        847.009 847.009;
        858.180 858.181;
        899.140 899.140;
        914.180 914.180;
        936.094 936.098;
        979.156 979.156;
        1057.108 1057.108;
        1083.177 1083.177;
        1085.0 1085.012;
        1100.020 1100.032;
        1158.006 1158.006;
        1175.110 1175.110;
        1120.156 1120.156;
        1203.116 1203.117;
        1273.160 1273.160;
        1281.057 1281.064;
        1281.100 1281.101;
        1287.107 1287.107;
        1420.148 1420.148;
        1457.064 1457.089;
        1461.040 1461.041;
        1468.194 1468.194;
        1470.185 1470.185;
        1486.060 1486.061;
        1525.122 1525.122;
        1577.164 1577.164;
        1667.134 1667.134;
        1681.127 1681.127;
        1683.136 1683.136;
        1705.061 1705.087;
        1742.103 1742.109;
        1818.055 1818.091;
        1848.110 1848.111;
        1851.131 1851.132;
        1861.128 1861.128;
        1861.131 1861.131;
        1861.149 1861.150;
        1861.172 1861.172;
        1861.180 1861.180;
        1861.183 1861.185;
        1871.108 1871.110;
        1871.123 1871.123;
        1871.169 1871.178;
        1872.081 1872.082;
        1872.135 1872.138;
        1872.144 1872.144;
        1872.158 1872.158;
        1872.163 1872.163;
        1872.170 1872.170;
        1876.106 1876.106;
        1885.094 1885.101;
        1901.032 1901.032;
        1924.141 1924.141;
        1947.006 1947.007;
        1947.101 1947.101;
        1948.101 1948.101;
        2009.128 2009.128;
        2011.060 2011.078;
        2020.101 2020.101;
        2032.190 2032.193;
        2066.155 2066.156;
        2087.157 2087.157;
        2126.011 2126.011;
        2142.136 2142.136;
        2145.013 2145.014;
        2145.024 2145.024;
        2146.079 2146.080;
        2146.165 2146.170;
        2150.146 2150.146;
        2160.164 2160.164;
        2171.152 2171.152;
        2191.045 2191.045;
        2191.047 2191.047;
        2191.120 2191.121;
        2191.144 2191.144;
        2191.162 2191.165;
        2193.127 2193.127;
        2254.033 2254.038;
        2270.097 2270.097;
        2314.0 2314.004;
        2355.006 2355.006;
        2369.178 2369.178;
        2405.117 2405.117;
        2466.148 2466.148;
        2467.017 2467.020;
        2479.015 2479.018;
        2518.144 2518.144;
        2525.007 2525.007;
        2561.0   2561.999;
        2576.0   2576.999;
        2601.099 2601.101;
        2605.186 2605.186;
        2617.008 2617.008;
        2617.035 2617.036;
        2617.110 2617.112;
        2617.128 2617.129;
        2618.122 2618.122;
        2618.125 2618.125;
        2619.126 2619.126;
        2619.199 2619.199;
        2620.038 2620.038;
        2620.114 2620.114;
        2620.124 2620.124;
        2620.177 2620.178;
        2652.120 2652.120;
    ];
